##TITLE= [Cr2O7]2-
##JCAMP-DX= 4.24 $$Exported PE UV WinLab Data File
##DATA TYPE= UV/VIS SPECTRUM
##ORIGIN= Chem. Dept. UWI, JAMAICA
##OWNER= public domain
##DATE= 97/07/11
##TIME= 15:07:52.00
##SPECTROMETER/DATA SYSTEM= PERKIN-ELMER LAMBDA 19 UV/VIS/NIR UV
##RESOLUTION= 1.000000
##DELTAX= -1.000000
##XUNITS= NANOMETERS
##YUNITS= ABSORBANCE
##XFACTOR= 1.00
##YFACTOR= .00000011920928955078
##FIRSTX= 800.00
##LASTX= 250.00
##NPOINTS= 551
##FIRSTY= 2.03
##MAXY= -.000099
##MINY= 2.12
##XYDATA= (X++(Y..Y))
  800.000000  1410      1309      1301      1418      1905      
  795.000000  1124      2081      562       -831      -277      
  790.000000  -311      1611      319       1133      2324      
  785.000000  747       965       244       1133      118       
  780.000000  1510      2550      1905      1066      806       
  775.000000  957       160       -504      1905      1024      
  770.000000  1930      428       906       2131      1015      
  765.000000  1846      2081      76        1259      1275      
  760.000000  780       1284      948       2408      1133      
  755.000000  1754      1519      730       655       705       
  750.000000  856       613       1720      1326      1301      
  745.000000  1871      218       302       1032      1854      
  740.000000  1896      2383      1292      2156      1426      
  735.000000  1099      1779      1577      3331      1779      
  730.000000  1712      814       1057      1032      1577      
  725.000000  999       764       1124      965       1259      
  720.000000  1561      2131      629       2718      1468      
  715.000000  2005      2383      1812      428       1368      
  710.000000  2131      1946      1275      2366      1586      
  705.000000  2634      1376      1502      2181      1628      
  700.000000  2735      2156      4908      12105     2248      
  695.000000  1737      2081      2995      1133      2190      
  690.000000  3448      2676      3389      2072      3389      
  685.000000  2718      4086      2181      3096      3524      
  680.000000  2735      3935      3440      3398      3482      
  675.000000  3482      2240      3062      3465      3364      
  670.000000  3977      4530      4304      3247      2970      
  665.000000  3725      3154      2030      2609      3331      
  660.000000  2433      3003      3364      2467      2970      
  655.000000  2878      2852      2542      4270      3809      
  650.000000  4329      3767      4153      3230      3364      
  645.000000  2920      2534      3909      3750      4799      
  640.000000  2760      3633      1972      2307      2265      
  635.000000  2903      3171      2634      2844      2089      
  630.000000  2282      3415      3691      3121      3767      
  625.000000  3834      3985      3624      2542      3280      
  620.000000  2886      2735      2978      2525      3901      
  615.000000  3180      2131      2945      1863      2500      
  610.000000  2509      3985      3222      2441      3624      
  605.000000  3549      4044      3851      3062      2769      
  600.000000  3230      2785      2743      2861      2911      
  595.000000  2760      3154      3037      1938      1988      
  590.000000  2618      3389      2743      2945      3331      
  585.000000  2500      3716      2785      2257      3062      
  580.000000  2861      4077      3415      2534      2978      
  575.000000  3037      3465      3599      3826      3289      
  570.000000  3071      3515      3540      4941      5361      
  565.000000  4069      4581      4564      4815      5092      
  560.000000  5780      5679      6879      7558      7366      
  555.000000  7105      8121      9270      10125     9639      
  550.000000  10419     10847     12608     12885     14924     
  545.000000  16870     17029     18724     20217     22465     
  540.000000  24906     26894     29310     32439     34612     
  535.000000  36692     40492     43495     46935     50777     
  530.000000  55298     59023     64257     68737     73988     
  525.000000  80514     86470     92887     101301    109111    
  520.000000  116174    124974    132574    142355    152312    
  515.000000  162957    173963    185053    197586    209674    
  510.000000  222651    236173    250031    264242    280004    
  505.000000  295841    311822    328943    345804    363688    
  500.000000  382403    401890    421822    441342    463874    
  495.000000  484644    506127    529733    552222    576583    
  490.000000  600281    625052    651149    676315    703050    
  485.000000  730422    756871    784897    813234    841931    
  480.000000  870067    899469    929517    958952    989034    
  475.000000  1019896   1051454   1081191   1112405   1143401   
  470.000000  1173390   1205276   1235684   1265221   1295168   
  465.000000  1324721   1352840   1382930   1410503   1439611   
  460.000000  1465817   1492720   1519874   1545979   1570994   
  455.000000  1595530   1619581   1642263   1664468   1687235   
  450.000000  1705664   1725202   1743967   1760199   1775298   
  445.000000  1789987   1802301   1814976   1824397   1834572   
  440.000000  1843892   1852356   1861600   1867254   1872598   
  435.000000  1878419   1882857   1885692   1889601   1890256   
  430.000000  1892806   1894266   1894467   1894249   1895247   
  425.000000  1897638   1900481   1904852   1910623   1918232   
  420.000000  1928114   1940092   1955226   1972254   1994283   
  415.000000  2020321   2050386   2085350   2126395   2173665   
  410.000000  2231412   2293169   2365043   2445120   2533612   
  405.000000  2635768   2748696   2874550   3015135   3171943   
  400.000000  3340067   3517872   3703596   3889387   4070874   
  395.000000  4248940   4427600   4609448   4806195   5019567   
  390.000000  5254675   5516962   5802887   6094400   6382431   
  385.000000  6654255   6895998   7111569   7303735   7493041   
  380.000000  7686524   7912094   8173885   8462496   8776305   
  375.000000  9082062   9369589   9619553   9833563   10014036  
  370.000000  10174233  10347852  10544380  10773037  11035441  
  365.000000  11305219  11570081  11803133  11988706  12139801  
  360.000000  12260027  12371914  12490974  12625661  12774970  
  355.000000  12926141  13057549  13160385  13212956  13228508  
  350.000000  13203586  13171877  13124926  13079711  13033884  
  345.000000  12970886  12884601  12748697  12598826  12391980  
  340.000000  12178607  11950915  11714054  11477319  11224990  
  335.000000  10960304  10678447  10373236  10053949  9724058   
  330.000000  9398731   9076424   8760946   8449091   8145700   
  325.000000  7843727   7555234   7276103   7012608   6770681   
  320.000000  6560119   6372717   6204567   6064184   5955258   
  315.000000  5879316   5834110   5822785   5840124   5889256   
  310.000000  5970693   6081020   6223861   6391424   6584118   
  305.000000  6795570   7025678   7274291   7543247   7826891   
  300.000000  8114335   8411761   8708919   9006849   9306843   
  295.000000  9610829   9908407   10200372  10481600  10753945  
  290.000000  11020098  11284423  11542902  11790038  12027881  
  285.000000  12260497  12479423  12709715  12936124  13159420  
  280.000000  13388026  13614208  13850222  14089381  14328096  
  275.000000  14580802  14826270  15087432  15345307  15601822  
  270.000000  15864310  16115070  16365244  16605225  16824688  
  265.000000  17028842  17221856  17377354  17520188  17636924  
  260.000000  17724408  17784974  17809862  17812790  17776150  
  255.000000  17711942  17635950  17517738  17386414  17244094  
  250.000000  17086430  
##END= 
