# Optical absorption spectrum of Rhodamine B in ethanol
#
# Data from PhotochemCAD 2.1a has been munged on 26 February 2012 by Scott Prahl to make
# the information available to non-Windows users.  Although I have tried to be as careful
# as possible, I may have introduced some error; the cautious user is advised to compare
# these results with the original sources at www.photochemcad.com:
#
# H. Du, R. A. Fuh, J. Li, A. Corkan, J. S. Lindsey, "PhotochemCAD: A computer-aided design
#     and research tool in photochemistry," Photochem. Photobiol., 68, 141-142, 1998. 
# J. M. Dixon, M. Taniguchi and J. S. Lindsey "PhotochemCAD 2. A refined program with accompanying 
#     spectral databases for photochemical calculations", Photochem. Photobiol., 81, 212-213, 2005.
#
# The spectral absorption measurements were made by R.-C. A. Fuh on 06-20-1995 using a Cary 3.  
# The absorption values were collected using a spectral bandwidth of 1.0 nm, a signal averaging time of 0.133 sec, a data interval of 0.25 nm, and a scan rate of 112.5 nm/min.
#
# These measurements were scaled to make the molar extinction coefficient match
# the value of 106000 cm-1/M at 542.8 nm.  These values were 
# then interpolated to report extinction coefficients at regular 1nm intervals
#
# The reported molar extinction coefficient is from
# Eastman Laboratory Chemicals Catalog No. 55 (1993-94), Fisher Scientific.
#
##Wavelength (nm)	Molar Extinction (cm-1/M) 
219.74	27036
219.99	26547
220.24	27068
220.49	27131
220.74	27137
220.99	27388
221.24	27227
221.49	27401
221.74	27542
221.99	27680
222.24	27793
222.49	28065
222.74	27931
222.99	27744
223.24	27628
223.49	28027
223.74	28276
223.99	28226
224.24	28354
224.49	28455
224.74	28236
224.99	28403
225.24	28220
225.49	28522
225.74	28281
225.99	28274
226.24	28195
226.49	28382
226.74	28450
226.99	28187
227.24	28129
227.49	28291
227.74	27741
227.99	28208
228.24	27906
228.49	27832
228.74	27867
228.99	27891
229.24	27550
229.49	27653
229.74	27558
229.99	27546
230.24	27568
230.49	27683
230.74	27552
230.99	27532
231.24	27565
231.49	27481
231.74	27169
231.99	27399
232.24	27559
232.49	27406
232.74	27468
232.99	27427
233.24	27432
233.49	27524
233.74	27459
233.99	27741
234.24	27830
234.49	27770
234.74	27943
234.99	27735
235.24	27748
235.49	27828
235.74	28041
235.99	28459
236.24	28398
236.49	28228
236.74	28223
236.99	28214
237.24	28337
237.49	28109
237.74	27943
237.99	27851
238.24	27809
238.49	27642
238.74	27542
238.99	27406
239.24	27210
239.49	26892
239.74	26642
239.99	26652
240.24	26302
240.49	25938
240.74	25674
240.99	25401
241.24	24927
241.49	24710
241.74	24297
241.99	24135
242.24	23395
242.49	23214
242.74	22821
242.99	22754
243.24	22645
243.49	22715
243.74	22684
243.99	22736
244.24	22728
244.49	22685
244.74	22708
244.99	22847
245.24	22904
245.49	23145
245.74	23114
245.99	23246
246.24	23445
246.49	23420
246.74	23496
246.99	23602
247.24	23615
247.49	23481
247.74	23390
247.99	23254
248.24	23006
248.49	23200
248.74	23304
248.99	23770
249.24	24164
249.49	24839
249.74	25226
249.99	25781
250.24	25924
250.49	26216
250.74	26541
250.99	26649
251.24	26901
251.49	27178
251.74	27316
251.99	27491
252.24	27644
252.49	27608
252.74	27540
252.99	27582
253.24	27232
253.49	26816
253.74	26318
253.99	26003
254.24	26014
254.49	25799
254.74	25966
254.99	26225
255.24	26682
255.49	26818
255.74	27408
255.99	27664
256.24	28247
256.49	28328
256.74	28704
256.99	29024
257.24	28958
257.49	29103
257.74	29092
257.99	29461
258.24	29397
258.49	29505
258.74	29485
258.99	29254
259.24	29226
259.49	28693
259.74	28151
259.99	27525
260.24	27095
260.49	26834
260.74	26369
260.99	25998
261.24	26082
261.49	25912
261.74	25664
261.99	25392
262.24	25171
262.49	24856
262.74	24383
262.99	24092
263.24	23742
263.49	23327
263.74	22849
263.99	22143
264.24	21633
264.49	21383
264.74	20929
264.99	20568
265.24	20232
265.49	19778
265.74	19397
265.99	19019
266.24	18755
266.49	18298
266.74	17891
266.99	17674
267.24	17353
267.49	17050
267.74	16847
267.99	16431
268.24	16246
268.49	16061
268.74	15966
268.99	15678
269.24	15702
269.49	15530
269.74	15386
269.99	15400
270.24	15261
270.49	15262
270.74	15258
270.99	15173
271.24	15176
271.49	14939
271.74	14932
271.99	14968
272.24	14981
272.49	14748
272.74	14880
272.99	14892
273.24	14932
273.49	15079
273.74	14882
273.99	14935
274.24	14824
274.49	14887
274.74	14842
274.99	14802
275.24	14622
275.49	14823
275.74	14700
275.99	14629
276.24	14774
276.49	14679
276.74	14545
276.99	14614
277.24	14461
277.49	14458
277.74	14456
277.99	14342
278.24	14231
278.49	14132
278.74	13896
278.99	13929
279.24	13865
279.49	13716
279.74	13822
279.99	13804
280.24	13696
280.49	13556
280.74	13481
280.99	13344
281.24	13313
281.49	13165
281.74	13172
281.99	13158
282.24	13010
282.49	13024
282.74	12989
282.99	12765
283.24	12655
283.49	12643
283.74	12755
283.99	12594
284.24	12501
284.49	12498
284.74	12469
284.99	12310
285.24	12171
285.49	12117
285.74	12296
285.99	12162
286.24	12163
286.49	12262
286.74	12156
286.99	12221
287.24	12067
287.49	12115
287.74	12085
287.99	11902
288.24	12030
288.49	12094
288.74	11914
288.99	12064
289.24	11991
289.49	11965
289.74	11939
289.99	12220
290.24	12179
290.49	12139
290.74	12129
290.99	11937
291.24	12047
291.49	12291
291.74	12142
291.99	12200
292.24	12246
292.49	12331
292.74	12307
292.99	12376
293.24	12453
293.49	12339
293.74	12537
293.99	12631
294.24	12595
294.49	12686
294.74	12822
294.99	12643
295.24	12840
295.49	12741
295.74	12928
295.99	12918
296.24	13092
296.49	13082
296.74	13116
296.99	13020
297.24	13179
297.49	13383
297.74	13303
297.99	13465
298.24	13427
298.49	13538
298.74	13395
298.99	13560
299.24	13781
299.49	13643
299.74	13732
299.99	13763
300.24	13901
300.49	14022
300.74	14162
300.99	14150
301.24	14116
301.49	14170
301.74	14429
301.99	14428
302.24	14558
302.49	14643
302.74	14641
302.99	14591
303.24	14741
303.49	14579
303.74	14913
303.99	14668
304.24	15044
304.49	14737
304.74	15063
304.99	14868
305.24	14842
305.49	14770
305.74	14734
305.99	14696
306.24	14854
306.49	14900
306.74	14727
306.99	14585
307.24	14528
307.49	14407
307.74	14419
307.99	14277
308.24	13742
308.49	13866
308.74	13483
308.99	13424
309.24	13317
309.49	13035
309.74	12864
309.99	12650
310.24	12236
310.49	11663
310.74	11508
310.99	12033
311.24	11364
311.49	10659
311.74	10485
311.99	10133
312.24	9647
312.49	10328
312.74	9908
312.99	9070
313.24	8925
313.49	9151
313.74	8610
313.99	8295
314.24	8047
314.49	7445
314.74	6841
314.99	6580
315.24	6921
315.49	6607
315.74	6586
315.99	6036
316.24	5679
316.49	5719
316.74	5304
316.99	5348
317.24	5386
317.49	5458
317.74	4373
317.99	5033
318.24	4270
318.49	3734
318.74	4180
318.99	4279
319.24	4040
319.49	4067
319.74	3787
319.99	4219
320.24	2942
320.49	3479
320.74	3451
320.99	3418
321.24	2921
321.49	3197
321.74	2986
321.99	3101
322.24	2835
322.49	2571
322.74	2288
322.99	2564
323.24	3150
323.49	2729
323.74	2475
323.99	2115
324.24	2189
324.49	2045
324.74	2411
324.99	2243
325.24	2806
325.49	1868
325.74	2026
325.99	1894
326.24	1681
326.49	1837
326.74	2175
326.99	1978
327.24	1734
327.49	2297
327.74	1473
327.99	1905
328.24	1780
328.49	1474
328.74	1864
328.99	1465
329.24	1342
329.49	1709
329.74	1125
329.99	2096
330.24	1690
330.49	1646
330.74	1828
330.99	1665
331.24	1663
331.49	1132
331.74	2007
331.99	1969
332.24	2446
332.49	2004
332.74	1806
332.99	1906
333.24	2119
333.49	1859
333.74	2896
333.99	2245
334.24	2413
334.49	2419
334.74	2322
334.99	2559
335.24	2274
335.49	2434
335.74	2416
335.99	2780
336.24	2414
336.49	2740
336.74	2697
336.99	3229
337.24	3248
337.49	3280
337.74	3450
337.99	3632
338.24	3255
338.49	3596
338.74	3828
338.99	3222
339.24	3439
339.49	3706
339.74	3543
339.99	4034
340.24	4261
340.49	3712
340.74	4100
340.99	4478
341.24	4212
341.49	4182
341.74	4236
341.99	4290
342.24	4303
342.49	4054
342.74	4417
342.99	4671
343.24	4770
343.49	4887
343.74	4583
343.99	5222
344.24	5170
344.49	4423
344.74	5004
344.99	5544
345.24	4658
345.49	5040
345.74	5151
345.99	5210
346.24	5539
346.49	5366
346.74	5378
346.99	5380
347.24	5543
347.49	5965
347.74	5825
347.99	5865
348.24	6383
348.49	6267
348.74	6337
348.99	6324
349.24	6509
349.49	7282
349.74	6415
349.99	7011
350.24	6825
350.49	6611
350.74	6791
350.99	7308
351.24	7326
351.49	7850
351.74	7262
351.99	7579
352.24	7816
352.49	7640
352.74	7881
352.99	8209
353.24	8010
353.49	7923
353.74	8073
353.99	7887
354.24	8270
354.49	8163
354.74	8203
354.99	8552
355.24	8558
355.49	8563
355.74	7961
355.99	8310
356.24	8775
356.49	8275
356.74	8408
356.99	8396
357.24	8748
357.49	8017
357.74	8221
357.99	8007
358.24	7983
358.49	7985
358.74	8093
358.99	7943
359.24	7975
359.49	7368
359.74	8063
359.99	7832
360.24	7710
360.49	7506
360.74	7296
360.99	7515
361.24	6766
361.49	7180
361.74	7207
361.99	7000
362.24	6680
362.49	6955
362.74	6784
362.99	6474
363.24	6101
363.49	6511
363.74	6002
363.99	6346
364.24	5852
364.49	5731
364.74	5572
364.99	5161
365.24	5551
365.49	5642
365.74	5490
365.99	4968
366.24	4700
366.49	4700
366.74	4602
366.99	4723
367.24	4252
367.49	4390
367.74	4412
367.99	4264
368.24	4015
368.49	4297
368.74	4030
368.99	3821
369.24	3732
369.49	3854
369.74	3672
369.99	3438
370.24	4000
370.49	3427
370.74	3011
370.99	3135
371.24	3114
371.49	3345
371.74	2809
371.99	2713
372.24	2819
372.49	2493
372.74	2621
372.99	2426
373.24	3039
373.49	2681
373.74	2578
373.99	2580
374.24	2300
374.49	2072
374.74	2314
374.99	2204
375.24	2219
375.49	2254
375.74	2178
375.99	2250
376.24	2173
376.49	2260
376.74	2036
376.99	2031
377.24	1993
377.49	2191
377.74	1975
377.99	2178
378.24	1601
378.49	2106
378.74	2012
378.99	1898
379.24	1814
379.49	1941
379.74	1777
379.99	1690
380.24	1820
380.49	1947
380.74	1879
380.99	2164
381.24	1708
381.49	1954
381.74	1648
381.99	1718
382.24	1579
382.49	1792
382.74	1796
382.99	1592
383.24	1799
383.49	2158
383.74	1636
383.99	2022
384.24	2046
384.49	1859
384.74	2180
384.99	1947
385.24	1982
385.49	2194
385.74	1770
385.99	1890
386.24	2249
386.49	2158
386.74	2214
386.99	2361
387.24	1925
387.49	1994
387.74	2318
387.99	2183
388.24	2140
388.49	2210
388.74	2061
388.99	2112
389.24	2133
389.49	2287
389.74	2236
389.99	2303
390.24	2164
390.49	1955
390.74	2447
390.99	2448
391.24	2319
391.49	2004
391.74	2053
391.99	2164
392.24	2193
392.49	2106
392.74	2166
392.99	2184
393.24	2175
393.49	2387
393.74	2130
393.99	2281
394.24	2279
394.49	2319
394.74	2466
394.99	2028
395.24	2315
395.49	2284
395.74	2316
395.99	2428
396.24	2124
396.49	2483
396.74	2134
396.99	2400
397.24	2286
397.49	2229
397.74	2311
397.99	2270
398.24	2163
398.49	2250
398.74	2296
398.99	2437
399.24	2027
399.49	2111
399.74	2428
399.99	2317
400.24	2431
400.49	1941
400.74	2357
400.99	1994
401.24	2290
401.49	2004
401.74	1988
401.99	2085
402.24	2157
402.49	2048
402.74	2085
402.99	2270
403.24	2256
403.49	2007
403.74	1802
403.99	2011
404.24	2200
404.49	2092
404.74	1973
404.99	2085
405.24	1937
405.49	2071
405.74	2024
405.99	2089
406.24	2156
406.49	1987
406.74	1827
406.99	1899
407.24	1951
407.49	2119
407.74	1975
407.99	1871
408.24	1919
408.49	2005
408.74	1954
408.99	1836
409.24	1921
409.49	1863
409.74	1842
409.99	2170
410.24	2022
410.49	1846
410.74	2156
410.99	1905
411.24	1968
411.49	1962
411.74	1841
411.99	1886
412.24	2035
412.49	2010
412.74	1851
412.99	1860
413.24	1941
413.49	1694
413.74	1856
413.99	1836
414.24	2037
414.49	1794
414.74	1793
414.99	1852
415.24	1912
415.49	1909
415.74	1745
415.99	1727
416.24	1769
416.49	1660
416.74	1794
416.99	1764
417.24	1513
417.49	1774
417.74	1606
417.99	1548
418.24	1700
418.49	1426
418.74	1630
418.99	1586
419.24	1401
419.49	1494
419.74	1402
419.99	1370
420.24	1455
420.49	1362
420.74	1293
420.99	1326
421.24	1277
421.49	1209
421.74	1294
421.99	1231
422.24	1225
422.49	1115
422.74	1122
422.99	1144
423.24	1175
423.49	1087
423.74	1119
423.99	1107
424.24	1090
424.49	1132
424.74	792
424.99	1033
425.24	958
425.49	836
425.74	719
425.99	682
426.24	748
426.49	894
426.74	872
426.99	660
427.24	578
427.49	582
427.74	665
427.99	667
428.24	584
428.49	470
428.74	534
428.99	475
429.24	440
429.49	328
429.74	532
429.99	388
430.24	555
430.49	303
430.74	289
430.99	402
431.24	317
431.49	171
431.74	331
431.99	239
432.24	147
432.49	298
432.74	260
432.99	62
433.24	327
433.49	-151
433.74	7
433.99	268
434.24	83
434.49	286
434.74	182
434.99	-10
435.24	233
435.49	98
435.74	44
435.99	0
436.24	-48
436.49	81
436.74	20
436.99	-55
437.24	90
437.49	96
437.74	-8
437.99	18
438.24	-93
438.49	0
438.74	-156
438.99	-42
439.24	-105
439.49	86
439.74	36
439.99	36
440.24	-116
440.49	-4
440.74	185
440.99	-42
441.24	-130
441.49	-31
441.74	26
441.99	174
442.24	-55
442.49	93
442.74	-53
442.99	17
443.24	-138
443.49	126
443.74	-9
443.99	311
444.24	107
444.49	24
444.74	120
444.99	-39
445.24	263
445.49	100
445.74	35
445.99	63
446.24	416
446.49	518
446.74	373
446.99	234
447.24	186
447.49	182
447.74	436
447.99	234
448.24	115
448.49	387
448.74	467
448.99	224
449.24	400
449.49	354
449.74	285
449.99	399
450.24	555
450.49	467
450.74	613
450.99	533
451.24	516
451.49	662
451.74	498
451.99	689
452.24	833
452.49	618
452.74	716
452.99	799
453.24	679
453.49	785
453.74	780
453.99	887
454.24	1021
454.49	1022
454.74	776
454.99	872
455.24	1015
455.49	1038
455.74	1063
455.99	1070
456.24	1087
456.49	1122
456.74	1196
456.99	1261
457.24	1377
457.49	1556
457.74	1216
457.99	1563
458.24	1245
458.49	1558
458.74	1615
458.99	1611
459.24	1685
459.49	1676
459.74	1900
459.99	1808
460.24	1884
460.49	2030
460.74	2067
460.99	2033
461.24	2089
461.49	2211
461.74	2283
461.99	2302
462.24	2272
462.49	2579
462.74	2453
462.99	2466
463.24	2693
463.49	2579
463.74	2664
463.99	2888
464.24	2790
464.49	2849
464.74	2815
464.99	3065
465.24	3083
465.49	3101
465.74	3145
465.99	3218
466.24	3447
466.49	3408
466.74	3471
466.99	3599
467.24	3667
467.49	3651
467.74	3707
467.99	3761
468.24	3967
468.49	3904
468.74	3821
468.99	3877
469.24	4090
469.49	4203
469.74	4339
469.99	4260
470.24	4309
470.49	4330
470.74	4420
470.99	4427
471.24	4784
471.49	4806
471.74	4838
471.99	4788
472.24	4962
472.49	5129
472.74	5115
472.99	5327
473.24	5288
473.49	5274
473.74	5708
473.99	5637
474.24	5555
474.49	5788
474.74	5724
474.99	5863
475.24	5820
475.49	6195
475.74	6013
475.99	6447
476.24	6461
476.49	6604
476.74	6462
476.99	6586
477.24	6866
477.49	6724
477.74	7020
477.99	6974
478.24	7272
478.49	7190
478.74	7439
478.99	7463
479.24	7691
479.49	7667
479.74	7841
479.99	7994
480.24	8050
480.49	8215
480.74	8184
480.99	8270
481.24	8745
481.49	8544
481.74	9019
481.99	8864
482.24	9140
482.49	9271
482.74	9353
482.99	9523
483.24	9547
483.49	9854
483.74	9904
483.99	10338
484.24	10230
484.49	10538
484.74	10667
484.99	10669
485.24	11093
485.49	11070
485.74	11300
485.99	11591
486.24	11607
486.49	11713
486.74	11857
486.99	12141
487.24	12343
487.49	12603
487.74	12767
487.99	12978
488.24	13356
488.49	13421
488.74	13804
488.99	13707
489.24	14261
489.49	14248
489.74	14553
489.99	14833
490.24	14980
490.49	15426
490.74	15404
490.99	15850
491.24	16015
491.49	16371
491.74	16838
491.99	16983
492.24	17187
492.49	17044
492.74	17763
492.99	17901
493.24	18059
493.49	18555
493.74	18494
493.99	19003
494.24	19327
494.49	19349
494.74	19729
494.99	19950
495.24	20222
495.49	20431
495.74	21017
495.99	20904
496.24	21535
496.49	21836
496.74	22158
496.99	22357
497.24	22649
497.49	22881
497.74	23132
497.99	23438
498.24	23825
498.49	24040
498.74	24504
498.99	24621
499.24	25214
499.49	25576
499.74	25741
499.99	25902
500.24	26307
500.49	26631
500.74	26867
500.99	27159
501.24	27452
501.49	27887
501.74	27991
501.99	28289
502.24	28600
502.49	28758
502.74	29254
502.99	29332
503.24	29862
503.49	29950
503.74	30053
503.99	30402
504.24	30739
504.49	30954
504.74	31105
504.99	31335
505.24	31507
505.49	32045
505.74	32049
505.99	32507
506.24	32591
506.49	32635
506.74	33002
506.99	32898
507.24	33446
507.49	33636
507.74	33524
507.99	34235
508.24	34289
508.49	34572
508.74	34457
508.99	34614
509.24	34988
509.49	35215
509.74	35399
509.99	35791
510.24	35837
510.49	36230
510.74	36350
510.99	36463
511.24	36694
511.49	36828
511.74	37044
511.99	37208
512.24	37436
512.49	37896
512.74	38203
512.99	38338
513.24	38583
513.49	38535
513.74	38935
513.99	39047
514.24	39527
514.49	39863
514.74	40041
514.99	40255
515.24	40779
515.49	40749
515.74	41211
515.99	41701
516.24	42156
516.49	42410
516.74	42678
516.99	43099
517.24	43589
517.49	43635
517.74	44168
517.99	44434
518.24	44832
518.49	45302
518.74	45551
518.99	46134
519.24	46262
519.49	46893
519.74	47225
519.99	47425
520.24	48141
520.49	48406
520.74	49121
520.99	49751
521.24	50159
521.49	50595
521.74	51348
521.99	51858
522.24	52318
522.49	52849
522.74	53325
522.99	54212
523.24	54487
523.49	55285
523.74	56006
523.99	56601
524.24	57506
524.49	57881
524.74	58577
524.99	59033
525.24	59910
525.49	60580
525.74	61357
525.99	61929
526.24	62758
526.49	63538
526.74	64029
526.99	64825
527.24	65786
527.49	66556
527.74	67507
527.99	68209
528.24	68934
528.49	69833
528.74	70994
528.99	71712
529.24	72185
529.49	73240
529.74	74151
529.99	74993
530.24	75563
530.49	76849
530.74	77682
530.99	78243
531.24	79282
531.49	79961
531.74	81003
531.99	81953
532.24	82976
532.49	83742
532.74	84535
532.99	85558
533.24	86471
533.49	87023
533.74	87385
533.99	88343
534.24	88694
534.49	89588
534.74	90411
534.99	91072
535.24	91930
535.49	92703
535.74	93477
535.99	94049
536.24	95102
536.49	95550
536.74	96448
536.99	97204
537.24	97883
537.49	98707
537.74	99120
537.99	99752
538.24	100308
538.49	101107
538.74	101395
538.99	101817
539.24	102649
539.49	102997
539.74	103413
539.99	103751
540.24	103749
540.49	104416
540.74	104968
540.99	105179
541.24	105100
541.49	105244
541.74	105462
541.99	105524
542.24	105617
542.49	105924
542.74	106000
542.99	105788
543.24	105646
543.49	105592
543.74	105615
543.99	105189
544.24	104781
544.49	104872
544.74	104126
544.99	104249
545.24	103734
545.49	103299
545.74	102588
545.99	102384
546.24	101959
546.49	101476
546.74	100938
546.99	100103
547.24	99223
547.49	98839
547.74	98165
547.99	97493
548.24	96489
548.49	95736
548.74	94687
548.99	93892
549.24	93000
549.49	91834
549.74	91200
549.99	89654
550.24	89144
550.49	87758
550.74	86993
550.99	85970
551.24	84675
551.49	83673
551.74	82376
551.99	81437
552.24	79791
552.49	79129
552.74	77762
552.99	76814
553.24	75293
553.49	74255
553.74	72997
553.99	71614
554.24	70310
554.49	69124
554.74	67388
554.99	65946
555.24	64367
555.49	62966
555.74	61507
555.99	60556
556.24	59047
556.49	57986
556.74	56715
556.99	55473
557.24	54297
557.49	52857
557.74	51807
557.99	50846
558.24	49687
558.49	48396
558.74	47418
558.99	46341
559.24	44729
559.49	44154
559.74	42664
559.99	41726
560.24	40672
560.49	39481
560.74	38601
560.99	37538
561.24	36663
561.49	35768
561.74	34604
561.99	33467
562.24	32581
562.49	31923
562.74	30652
562.99	30220
563.24	28960
563.49	28254
563.74	27300
563.99	26340
564.24	25668
564.49	24904
564.74	24077
564.99	23221
565.24	22513
565.49	21640
565.74	21108
565.99	20398
566.24	19543
566.49	18962
566.74	18334
566.99	17699
567.24	17128
567.49	16420
567.74	15901
567.99	15111
568.24	14788
568.49	13943
568.74	13592
568.99	13088
569.24	12669
569.49	12150
569.74	11516
569.99	10872
570.24	10638
570.49	9903
570.74	9969
570.99	9519
571.24	8882
571.49	8442
571.74	8237
571.99	7938
572.24	7724
572.49	7066
572.74	7200
572.99	6393
573.24	6423
573.49	5988
573.74	6031
573.99	5789
574.24	5256
574.49	5197
574.74	4926
574.99	4978
575.24	4602
575.49	4377
575.74	4073
575.99	4090
576.24	3674
576.49	3497
576.74	3145
576.99	3167
577.24	2878
577.49	2765
577.74	2780
577.99	2509
578.24	2346
578.49	2286
578.74	2091
578.99	1927
579.24	1892
579.49	1693
579.74	1474
579.99	1244
580.24	1492
580.49	1335
580.74	1123
580.99	664
581.24	980
581.49	873
581.74	811
581.99	958
582.24	736
582.49	632
582.74	556
582.99	565
583.24	222
583.49	244
583.74	264
583.99	296
584.24	409
584.49	47
584.74	8
584.99	158
585.24	-44
585.49	19
585.74	-223
585.99	133
586.24	-82
586.49	-184
586.74	-215
586.99	-97
587.24	-174
587.49	-131
587.74	-182
587.99	-215
588.24	-202
588.49	-305
588.74	-338
588.99	-520
589.24	-463
589.49	-391
589.74	-353
589.99	-357
590.24	-469
590.49	-397
590.74	-329
590.99	-580
591.24	-456
591.49	-597
591.74	-538
591.99	-647
592.24	-587
592.49	-442
592.74	-517
592.99	-465
593.24	-401
593.49	-432
593.74	-478
593.99	-533
594.24	-411
594.49	-692
594.74	-449
594.99	-509
595.24	-520
595.49	-711
595.74	-471
595.99	-507
596.24	-475
596.49	-422
596.74	-559
596.99	-528
597.24	-635
597.49	-261
597.74	-205
597.99	-642
598.24	-332
598.49	-590
598.74	-387
598.99	-709
599.24	-693
599.49	-654
599.74	-557
599.99	-528
600.24	-517
600.49	-314
600.74	-317
600.99	-622
601.24	-582
601.49	-318
601.74	-358
601.99	-524
602.24	-298
602.49	-500
602.74	-407
602.99	-472
603.24	-555
603.49	-424
603.74	-641
603.99	-306
604.24	-510
604.49	-395
604.74	-562
604.99	-569
605.24	-360
605.49	-628
605.74	-463
605.99	-688
606.24	-545
606.49	-418
606.74	-477
606.99	-496
607.24	-450
607.49	-175
607.74	-693
607.99	-278
608.24	-310
608.49	-487
608.74	-428
608.99	-587
609.24	-389
609.49	-504
609.74	-346
609.99	-668
610.24	-216
610.49	-291
610.74	-358
610.99	-516
611.24	-470
611.49	-433
611.74	-216
611.99	-460
612.24	-400
612.49	-476
612.74	-240
612.99	-557
613.24	-287
613.49	-441
613.74	-278
613.99	-283
614.24	-417
614.49	-303
614.74	-479
614.99	-162
615.24	-561
615.49	-364
615.74	-294
615.99	-428
616.24	-254
616.49	-266
616.74	-129
616.99	-330
617.24	-452
617.49	-453
617.74	-550
617.99	-453
618.24	-370
618.49	-275
618.74	-306
618.99	-291
619.24	-520
619.49	-194
619.74	-372
619.99	-590
620.24	-171
620.49	-463
620.74	-263
620.99	-477
621.24	-401
621.49	-107
621.74	-301
621.99	-170
622.24	-415
622.49	-342
622.74	-251
622.99	-366
623.24	-260
623.49	-507
623.74	-242
623.99	-405
624.24	-369
624.49	-381
624.74	-182
624.99	-214
625.24	-235
625.49	-515
625.74	-273
625.99	-338
626.24	-373
626.49	-373
626.74	-147
626.99	-277
627.24	-240
627.49	-455
627.74	-246
627.99	-335
628.24	-523
628.49	-241
628.74	-444
628.99	-251
629.24	-514
629.49	-341
629.74	-543
629.99	-49
630.24	-220
630.49	-470
630.74	-180
630.99	-440
631.24	-134
631.49	-226
631.74	-247
631.99	-371
632.24	-474
632.49	-204
632.74	-334
632.99	-270
633.24	-374
633.49	-277
633.74	-230
633.99	-246
634.24	-480
634.49	-327
634.74	-322
634.99	-338
635.24	-192
635.49	-441
635.74	-229
635.99	-263
636.24	-408
636.49	-287
636.74	-215
636.99	-242
637.24	-517
637.49	-170
637.74	-264
637.99	-421
638.24	-42
638.49	-190
638.74	-425
638.99	-130
639.24	-379
639.49	-205
639.74	-424
639.99	-159
640.24	-364
640.49	-341
640.74	-410
640.99	-300
641.24	-116
641.49	-354
641.74	-251
641.99	-199
642.24	-269
642.49	-469
642.74	-276
642.99	-267
643.24	-394
643.49	-174
643.74	-501
643.99	-189
644.24	-230
644.49	-298
644.74	-372
644.99	-290
645.24	-312
645.49	-181
645.74	-309
645.99	-359
646.24	-341
646.49	-192
646.74	-515
646.99	-62
647.24	-333
647.49	-152
647.74	-461
647.99	-89
648.24	-253
648.49	-341
648.74	-165
648.99	-208
649.24	-56
649.49	-403
649.74	-365
649.99	-260
650.24	-232
650.49	-318
650.74	-233
650.99	-178
651.24	-251
651.49	-232
651.74	-478
651.99	-407
652.24	-229
652.49	-332
652.74	-103
652.99	-236
653.24	-251
653.49	-72
653.74	-268
653.99	-287
654.24	-350
654.49	-109
654.74	-398
654.99	-446
655.24	-228
655.49	-190
655.74	-71
655.99	-220
656.24	-206
656.49	-223
656.74	-159
656.99	-94
657.24	-294
657.49	-288
657.74	-412
657.99	-121
658.25	-223
658.5	-148
658.75	-169
659	-386
659.25	-69
659.5	-381
659.75	-161
660	-323
660.25	-224
660.5	-225
660.75	-263
661	-296
661.25	-66
661.5	46
661.75	-353
662	-332
662.25	-183
662.5	25
662.75	-89
663	-203
663.25	-63
663.5	-143
663.75	-78
664	-594
664.25	-242
664.5	-53
664.75	26
665	-332
665.25	-260
665.5	-92
665.75	-229
666	-167
666.25	-403
666.5	-206
666.75	-104
667	-108
667.25	-274
667.5	-48
667.75	-202
668	-94
668.25	-143
668.5	-114
668.75	-381
669	136
669.25	-52
669.5	-421
669.75	-281
670	-314
670.25	-107
670.5	-288
670.75	-217
671	-318
671.25	-45
671.5	51
671.75	-258
672	-419
672.25	-242
672.5	-101
672.75	-392
673	-286
673.25	-158
673.5	-209
673.75	-112
674	-281
674.25	-97
674.5	-305
674.75	-80
675	-32
675.25	-215
675.5	-61
675.75	-170
676	54
676.25	-257
676.5	-204
676.75	-32
677	134
677.25	-44
677.5	-20
677.75	-141
678	-182
678.25	-78
678.5	-151
678.75	-212
679	-55
679.25	-211
679.5	-149
679.75	-262
680	-108
680.25	-153
680.5	35
680.75	-308
681	-84
681.25	-77
681.5	-181
681.75	-115
682	-190
682.25	-144
682.5	-115
682.75	-105
683	-262
683.25	-238
683.5	111
683.75	-196
684	-210
684.25	-220
684.5	-227
684.75	-157
685	-218
685.25	-43
685.5	-207
685.75	125
686	-262
686.25	-171
686.5	-62
686.75	9
687	-112
687.25	-139
687.5	-90
687.75	-116
688	-148
688.25	-80
688.5	-174
688.75	-50
689	-53
689.25	167
689.5	-43
689.75	-170
690	-124
690.25	-163
690.5	46
690.75	-241
691	89
691.25	-6
691.5	-18
691.75	0
692	-161
692.25	36
692.5	-217
692.75	62
693	-142
693.25	-161
693.5	-178
693.75	-193
694	53
694.25	-187
694.5	-116
694.75	-194
695	-96
695.25	-167
695.5	-134
695.75	201
696	-60
696.25	-138
696.5	-248
696.75	12
697	82
697.25	0
697.5	-56
697.75	-102
698	-23
698.25	-139
698.5	-260
698.75	-30
699	-62
699.25	-48
699.5	-135
699.75	3
700	-232
